File: Post Processing/Pure Ni/Ni_Tensile.def1.txt
# Fix print output for fix def1
1.2558e-15 -0.166933 -0.751398 0.0551572
0.0008 -0.0245156 -0.00627987 0.476296
0.0016 -0.00895211 -0.000409747 0.573245
0.0024 -0.00458769 7.81679e-06 0.663827
0.0032 -0.00225815 -0.000250788 0.753706
0.004 -0.000714049 -0.00056729 0.843661
0.0048 0.000272308 -0.000713189 0.933881
0.0056 0.000766848 -0.000593655 1.02444
0.0064 0.000852718 -0.000250358 1.11536
0.0072 0.000702943 0.000190709 1.20673
0.008 0.000504362 0.000557088 1.29857
0.0088 0.000397153 0.000733948 1.39095
0.0096 0.000420677 0.000707646 1.48386
0.0104 0.000523174 0.000555827 1.5773
0.0112 0.000606345 0.000393981 1.67126
0.012 0.000606495 0.000306264 1.76573
0.0128 0.000526854 0.000296291 1.8607
0.0136 0.000425165 0.000322805 1.95617
0.0144 0.000356988 0.000325343 2.05215
0.0152 0.000345221 0.000288398 2.14863
0.016 0.000365701 0.000239405 2.2456
0.0168 0.000377801 0.000210087 2.34305
0.0176 0.000368742 0.000212564 2.44095
0.0184 0.000350644 0.000228117 2.53932
0.0192 0.000347413 0.000236591 2.63814
0.02 0.00035945 0.000231563 2.7374
0.0208 0.000378102 0.000229022 2.83711
0.0216 0.000380174 0.0002278 2.93723
0.0224 0.000372032 0.000229204 3.03778
0.0232 0.000373519 0.000233611 3.13875
0.024 0.000379131 0.000229082 3.24013
0.0248 0.000380689 0.000223472 3.34192
0.0256 0.000380884 0.000222065 3.44409
0.0264 0.00037914 0.000217252 3.54665
0.0272 0.000380209 0.000215845 3.64959
0.028 0.000377295 0.000208449 3.75289
0.0288 0.000379178 0.000205011 3.85655
0.0296 0.00037845 0.000200081 3.96057
0.0304 0.000378982 0.000196752 4.06493
0.0312 0.00037927 0.000191904 4.16963
0.032 0.000380991 0.000191134 4.27466
0.0328 0.000378623 0.000183868 4.38
0.0336 0.000381638 0.000179029 4.48567
0.0344 0.00038478 0.000177611 4.59164
0.0352 0.000386508 0.000174806 4.69791
0.036 0.000386937 0.000169291 4.80446
0.0368 0.000387911 0.000162884 4.9113
0.0376 0.000386458 0.000155909 5.0184
0.0384 0.000387416 0.000152123 5.12577
0.0392 0.000394637 0.000151877 5.23339
0.04 0.000395712 0.000144421 5.34125
0.0408 0.000393563 0.000135701 5.44934
0.0416 0.000395953 0.000132457 5.55766
0.0424 0.000403393 0.000129515 5.66621
0.0432 0.000408244 0.000126755 5.77495
0.044 0.000410709 0.000120323 5.88388
0.0448 0.000411594 0.000110176 5.993
0.0456 0.000419086 0.000107392 6.10229
0.0464 0.0004195 0.000100305 6.21174
0.0472 0.000423873 9.2342e-05 6.32133
0.048 0.000433011 8.68566e-05 6.43107
0.0488 0.000438498 8.10469e-05 6.54093
0.0496 0.000440611 7.00057e-05 6.65091
0.0504 0.000447252 6.38118e-05 6.761
0.0512 0.000456631 5.97899e-05 6.87117
0.052 0.000460187 4.67429e-05 6.98142
0.0528 0.000469621 3.95659e-05 7.09173
0.0536 0.000479669 3.27726e-05 7.20208
0.0544 0.00048818 2.27608e-05 7.31245
0.0552 0.000497163 1.0584e-05 7.42282
0.056 0.000505954 -1.54683e-06 7.53318
0.0568 0.000516182 -1.36209e-05 7.64351
0.0576 0.000531477 -2.46538e-05 7.75379
0.0584 0.000546673 -3.52436e-05 7.86399
0.0592 0.000561121 -4.88348e-05 7.9741
0.06 0.000574156 -6.66425e-05 8.08409
0.0608 0.000590791 -8.39965e-05 8.19393
0.0616 0.000611589 -0.000101768 8.30358
0.0624 0.000633303 -0.000120365 8.41301
0.0632 0.000659118 -0.000137635 8.52219
0.064 0.000690318 -0.000157677 8.63108
0.0648 0.000716505 -0.000186472 8.73963
0.0656 0.000749115 -0.000211576 8.8478
0.0664 0.000786547 -0.000239327 8.95555
0.0672 0.000832985 -0.000273337 9.0628
0.068 0.00088106 -0.000311374 9.16948
0.0688 0.000937778 -0.000352007 9.27554
0.0696 0.00100415 -0.000401815 9.38086
0.0704 0.0010798 -0.000453866 9.48538
0.0712 0.00116404 -0.000519288 9.58899
0.072 0.00127203 -0.000589773 9.69159
0.0728 0.00139648 -0.000680934 9.79302
0.0736 0.00154902 -0.000783904 9.89315
0.0744 0.00172473 -0.000913502 9.99179
0.0752 0.00194643 -0.00106532 10.0888
0.076 0.00221162 -0.00124785 10.1838
0.0768 0.00252936 -0.00147621 10.2768
0.0776 0.0029066 -0.0017511 10.3673
0.0784 0.00334574 -0.00207549 10.4551
0.0792 0.00383868 -0.00244737 10.5396
0.08 0.00437238 -0.00286301 10.6203
0.0808 0.0049383 -0.00331721 10.6968
0.0816 0.00555519 -0.00380806 10.7682
0.0824 0.00624029 -0.00436335 10.8338
0.0832 0.00704099 -0.00501077 10.8929
0.084 0.00799198 -0.00576755 10.9446
0.0848 0.00912183 -0.00666825 10.9878
0.0856 0.0104516 -0.0077339 11.0213
0.0864 0.0120066 -0.00896681 11.0437
0.0872 0.0137944 -0.0103715 11.0536
0.088 0.0158415 -0.011982 11.0493
0.0888 0.0181479 -0.0137871 11.0292
0.0896 0.0207082 -0.0157633 10.9915
0.0904 0.0234959 -0.0178954 10.9345
0.0912 0.0264562 -0.0201376 10.8567
0.092 0.029538 -0.0224301 10.7565
0.0928 0.0326304 -0.0246922 10.633
0.0936 0.0355942 -0.0268065 10.4853
0.0944 0.038311 -0.0286757 10.3134
0.0952 0.0406184 -0.0301893 10.118
0.096 0.0423675 -0.0312362 9.90019
0.0968 0.0434425 -0.0317457 9.66228
0.0976 0.0437919 -0.0316928 9.40709
0.0984 0.0433761 -0.0310742 9.1381
0.0992 0.0422598 -0.0299521 8.85926
0.1 0.0405728 -0.0284396 8.57465
0.1008 0.0384527 -0.0266465 8.28805
0.1016 0.0360695 -0.0247211 8.00298
0.1024 0.0336141 -0.0227747 7.72219
0.1032 0.031193 -0.0209037 7.4477
0.104 0.0289339 -0.0191784 7.18076
0.1048 0.02822 -0.0185082 6.91816
0.1056 0.137401 -0.0754896 6.43714
0.1064 -0.0147439 0.0471042 4.77498
0.1072 0.0218347 -0.0019093 5.13895
0.108 0.0187626 -0.0148537 5.18185
0.1088 -0.00390512 0.00604637 5.05678
0.1096 0.00588555 -0.00351954 4.80352
0.1104 -4.5359e-05 -0.00104104 4.4227
0.1112 0.00602766 -0.00375962 4.05804
0.112 0.00642663 -0.00244943 3.77905
0.1128 -0.00224139 0.011032 3.56483
0.1136 0.000368427 0.00205314 3.44221
0.1144 0.0061811 -0.00506552 3.39384
0.1152 0.00101429 0.000864921 3.32389
0.116 0.0119512 -0.00721765 3.2448
0.1168 0.00672378 -0.00207898 3.10513
0.1176 0.00661251 -0.00728483 3.01253
0.1184 0.000362318 0.00452557 2.91681
0.1192 0.00652862 0.00203756 2.88963
0.12 -0.00274455 0.00590542 2.86777
0.1208 -0.00230368 0.0056706 2.81251
0.1216 0.00212626 0.00626723 2.68173
0.1224 0.00335155 -0.00395174 2.51679
0.1232 -0.00171918 -0.00160322 2.41129
0.124 -0.00606591 0.000489795 2.31202
0.1248 -0.00028964 -0.00611509 2.22498
0.1256 -0.00479949 0.00284855 2.17195
0.1264 0.00300277 0.00264092 2.12364
0.1272 -0.00396742 0.01106 2.06868
0.128 0.00728425 0.00634847 2.02539
0.1288 0.00795115 0.00184333 1.97841
0.1296 -0.00106167 0.0018048 1.91787
0.1304 -0.000229006 0.00360214 1.88949
0.1312 -0.00129465 0.00880094 1.85483
0.132 -0.00492155 0.00533116 1.86893
0.1328 -0.000728434 0.0100678 1.91267
0.1336 0.00925099 0.0015812 1.90886
0.1344 0.00841928 0.00186778 1.89906
0.1352 0.0072143 -0.00135065 1.92522
0.136 -0.00273681 -0.00309942 1.95916
0.1368 0.00264312 -0.00369409 2.03431
0.1376 -0.0119306 0.00326123 2.07837
0.1384 -0.0149228 0.0117641 2.07426
0.1392 -0.00196727 0.00882985 2.10062
0.14 -0.00360958 0.00854403 2.11309
0.1408 0.00436105 -0.00654575 2.12067
0.1416 2.5143e-05 -0.00775939 2.16434
0.1424 0.0037502 -0.0133159 2.17478
0.1432 0.00213251 -0.00871755 2.12993
0.144 0.00520955 -0.0124717 2.13048
0.1448 0.00684676 0.00212647 2.10697
0.1456 0.00897799 0.00252108 2.08828
0.1464 -0.00252318 0.00102998 2.08224
0.1472 -0.00513006 -0.00248119 2.08646
0.148 -0.00013449 -0.00584813 2.12393
0.1488 -0.000854497 -0.00259973 2.15881
0.1496 -0.00353129 0.0075177 2.17027
0.1504 0.00294209 0.00400444 2.20549
0.1512 -0.00213237 -0.00265806 2.21473
0.152 -0.00404437 -0.000696705 2.24826
0.1528 -0.000999024 -0.000632469 2.25743
0.1536 0.0049609 0.00533684 2.2681
0.1544 0.0122338 0.00297388 2.28834
0.1552 0.00365519 0.00229005 2.26114
0.156 -0.00353295 0.0090733 2.2597
0.1568 0.000301748 0.00467961 2.2566
0.1576 0.00160959 -0.00160261 2.23702
0.1584 -0.0026153 -0.00229372 2.23236
0.1592 -0.00249823 -0.00263415 2.26929
0.16 -0.00385488 0.00919009 2.3174
0.1608 0.0013412 -0.00280075 2.33398
0.1616 0.00413548 0.00441509 2.35419
0.1624 0.00222727 0.00701808 2.38287
0.1632 0.00748816 0.00215223 2.421
0.164 0.00475894 -0.00131035 2.43284
0.1648 -0.00413085 0.00618854 2.45261
0.1656 0.00551403 0.00173952 2.51667
0.1664 0.00425286 -0.0082614 2.56777
0.1672 0.0139257 -0.00509538 2.65445
0.168 0.00608166 8.44182e-06 2.72455
0.1688 -0.00274354 -0.00468163 2.76819
0.1696 -0.00728743 -0.00191736 2.825
0.1704 -0.0112837 0.000979862 2.84615
0.1712 0.00277441 0.00103382 2.90381
0.172 -0.00262753 0.00130959 2.9101
0.1728 0.00616574 -0.00359758 2.96692
0.1736 9.80199e-05 0.00704225 3.01702
0.1744 0.0108251 -0.00332072 3.07668
0.1752 0.0115569 -0.00382977 3.09649
0.176 -0.00462965 0.00109396 3.12256
0.1768 0.00115749 -0.00856499 3.16826
0.1776 -0.000873018 0.00307578 3.2037
0.1784 -0.000954839 0.00300788 3.25778
0.1792 0.00142668 -0.00464397 3.29467
0.18 0.00372923 -0.00206804 3.34266
0.1808 -0.00274047 0.00124798 3.38734
0.1816 0.00255055 0.00190315 3.4203
0.1824 0.00158679 0.00679754 3.4539
0.1832 -0.00107995 -0.00146263 3.46142
0.184 -0.00316363 -0.00584816 3.45801
0.1848 0.0046161 -0.0136076 3.46531
0.1856 0.012599 -0.0148059 3.4828
0.1864 0.00152727 -0.0066127 3.49186
0.1872 0.00524823 -0.000707342 3.51059
0.188 0.00298124 -0.00334466 3.52087
0.1888 0.00586781 0.00317511 3.5802
0.1896 0.00291554 -0.00183162 3.64504
0.1904 -0.00103933 -0.00952398 3.68798
0.1912 0.002448 -0.00667425 3.73159
0.192 0.00733613 0.00206761 3.81514
0.1928 -0.00264173 0.00379046 3.91063
0.1936 0.000224453 -0.00653492 3.9372
0.1944 0.00180118 -0.00344422 3.95571
0.1952 -0.00141482 -0.00152505 3.98704
0.196 0.00604216 0.0169327 4.05032
0.1968 0.00142585 -0.00262723 4.07398
0.1976 0.000625968 -0.00386976 4.09553
0.1984 -0.00211803 -0.00208794 4.11707
0.1992 -0.00708927 0.0052105 4.14381
0.2 0.000818543 -0.00923281 4.15661