File: Post Processing/Pure Ni/Ni_Tensile_5KeV.def1.txt
# Fix print output for fix def1
2.86709e-15 0.0983067 -0.389717 0.288152
-0.00296437 0.0258285 0.000546387 0.510692
-0.00353968 0.00198415 -0.0065896 0.606187
-0.00401959 0.00118184 0.00158684 0.721271
-0.00447571 -0.00212542 7.24514e-05 0.828952
-0.00487788 0.00131478 4.86621e-05 0.940467
-0.00534293 0.000305896 0.00202334 1.05547
-0.00576071 -0.000891784 -0.000236898 1.16504
-0.00615181 0.00396035 0.000337525 1.2819
-0.00655592 0.00388652 -0.00240557 1.39647
-0.00698533 0.00391106 -0.003532 1.51292
-0.00740028 0.00267245 -0.00439267 1.62782
-0.00786989 0.00135992 -0.00223414 1.74547
-0.00830552 0.00170768 0.000266755 1.86695
-0.00873079 -0.0012381 -0.00134502 1.98236
-0.00915018 0.00161267 0.00188496 2.10453
-0.00961903 -0.00178547 -0.00137234 2.22282
-0.0100203 -0.000399045 0.00254165 2.34452
-0.0104528 -0.00226928 0.0007413 2.46681
-0.0108856 -0.00138387 0.00213957 2.5901
-0.0112763 -0.00078009 0.00352057 2.71235
-0.0117159 -0.00218862 0.00123657 2.83285
-0.0121021 0.00129914 0.000101235 2.96299
-0.0125033 0.00112096 0.00176117 3.08712
-0.0129509 -0.00289068 0.00151722 3.21157
-0.013394 -0.00102404 0.00379601 3.33888
-0.0138004 -0.000610312 0.00314345 3.46485
-0.0142124 -0.00262626 0.000605864 3.59244
-0.01461 0.00105043 0.0022785 3.72328
-0.0150125 -0.000226405 0.00026738 3.84985
-0.015422 0.00144278 0.000801569 3.97812
-0.0158929 -0.00043443 1.94195e-05 4.1103
-0.0162652 -0.000501804 -0.000801529 4.24036
-0.0166835 0.000965639 0.00177688 4.37174
-0.0171066 -0.000515346 -0.000442504 4.50261
-0.0175945 -0.00130254 0.00213242 4.63324
-0.0179995 -0.00142448 0.00201889 4.76677
-0.0184427 -0.00177741 0.000583432 4.89791
-0.0187767 0.00283673 -0.000218015 5.03264
-0.0191851 0.00307568 -0.00231139 5.16676
-0.0196225 0.00141368 -0.00217595 5.30239
-0.0201293 0.000797058 0.000711793 5.43437
-0.0205935 -0.00211823 0.00371436 5.56585
-0.0210302 -0.00150759 0.00150628 5.70341
-0.0214583 -0.000838499 0.00100444 5.83931
-0.0218836 -0.000634897 0.000687665 5.97194
-0.0222965 0.00106844 0.000373422 6.10884
-0.0228023 0.00182335 0.000328231 6.2469
-0.023207 0.000295227 -0.00258826 6.38081
-0.0237123 0.00106179 0.00108605 6.5199
-0.0241489 0.00115984 -8.97828e-05 6.65592
-0.024657 -0.000971298 -8.49932e-05 6.79149
-0.0251691 -0.000256195 0.00244173 6.92768
-0.0257101 -0.00302948 0.000742404 7.06446
-0.0260989 0.000242356 0.000250246 7.20269
-0.0265686 0.000538309 -0.000322181 7.34206
-0.0272351 -0.00323827 0.00128787 7.4754
-0.0275897 0.00389921 -0.00211169 7.61661
-0.0281999 0.000569865 8.47328e-05 7.75178
-0.0288239 -0.000176639 0.00159475 7.88903
-0.029228 0.00113414 -0.00243316 8.02407
-0.0299362 -0.00152932 0.00185468 8.16121
-0.0304505 0.00220687 0.000496995 8.30039
-0.0311331 -0.000738605 -0.000835807 8.43357
-0.0317025 0.00103956 0.00016292 8.56836
-0.0323403 0.00211656 1.89851e-05 8.70716
-0.0330315 0.000797419 0.000320851 8.83992
-0.0337415 0.000619808 -0.00131285 8.97444
-0.034374 0.002257 -0.00326264 9.11005
-0.0353305 -0.000788149 0.00163895 9.23887
-0.035943 0.00219771 -0.00247376 9.37189
-0.0368415 -0.000648924 0.000433979 9.5034
-0.0377681 0.00158318 0.00109652 9.63102
-0.0386092 0.00154372 -0.00162795 9.75812
-0.0396824 0.00121257 0.000187691 9.88235
-0.0406187 0.00189015 -0.00172412 10.0082
-0.0418322 0.000947106 -0.000777169 10.1242
-0.0429254 0.00444396 -0.00168347 10.2448
-0.0443586 0.00162985 -0.00222064 10.3555
-0.0455546 0.00399433 -0.00348806 10.4689
-0.0471577 0.00368822 -0.00177373 10.5672
-0.048834 0.00450833 -0.00323505 10.6624
-0.0506495 0.00601565 -0.00389383 10.7475
-0.052609 0.00727608 -0.00414943 10.8224
-0.0548178 0.00969002 -0.00739559 10.88
-0.0574047 0.0104088 -0.00845777 10.9094
-0.0600943 0.0115098 -0.00797021 10.911
-0.0628571 0.0120031 -0.00817715 10.8924
-0.0653742 0.00166129 0.00205158 10.8683
-0.0670629 0.0068724 -0.00596065 10.8589
-0.0692313 0.0070507 -0.00304579 10.7926
-0.0712326 0.00408277 0.0006734 10.661
-0.0722556 0.00610329 -0.000799428 10.4976
-0.0741865 0.0027556 0.00361739 10.1287
-0.0746923 0.0124853 -0.00298097 9.54471
-0.0771851 0.0142006 -0.00061139 8.53506
-0.079138 0.0188899 0.00123418 7.49499
-0.0818057 0.0109693 -0.000657895 6.38321
-0.0856491 0.0269249 -0.00828737 5.22651
-0.0903526 0.0336774 -0.0193138 4.20268
-0.095468 0.0379221 -0.0173496 3.32948
-0.0989933 0.0182215 -0.00944371 2.64422
-0.101768 0.0148505 0.00182094 2.21062
-0.103273 0.0061113 -0.000550295 1.90318
-0.104175 0.00365536 -0.00135431 1.68978
-0.104815 -0.00134438 -0.00750471 1.52816
-0.10523 -0.0026301 0.014491 1.46394
-0.105535 -0.0067698 -0.00184187 1.47032
-0.106045 0.00358354 -0.00258835 1.53496
-0.106602 0.00282526 0.00312423 1.56606
-0.10707 0.00314716 -0.00249753 1.64799
-0.107506 0.00227883 0.00272407 1.69455
-0.107754 -0.00301558 0.00262443 1.73078
-0.107955 0.000434973 -0.00314329 1.82324
-0.10811 0.00717877 -0.00944496 1.90252
-0.108612 -0.000370542 -0.00125018 2.01364
-0.109258 -0.00763114 0.00020588 2.06953
-0.110103 0.00637564 0.00677546 2.09806
-0.110756 0.00461245 -0.00240922 2.12262
-0.111209 0.00146183 0.000876592 2.17712
-0.111853 -0.0044974 0.00507916 2.21723
-0.112565 0.00349975 0.00329748 2.26546
-0.113255 0.00261587 -0.000877326 2.31926
-0.113883 -0.000514614 -0.000915542 2.367
-0.114586 0.00631543 -0.000522803 2.41028
-0.115212 0.00168642 -0.00149919 2.46775
-0.115825 0.00280415 0.0016841 2.5202
-0.116439 0.00411188 0.00146509 2.59202
-0.117175 0.00458062 0.00189311 2.66914
-0.117722 -0.00809873 0.000821447 2.73815
-0.118044 0.00299797 0.00563917 2.82806
-0.118443 0.00219916 0.00304186 2.88375
-0.118727 -0.00783157 -0.00448955 2.9077
-0.119049 -0.00809762 0.0080026 2.96218
-0.11952 -0.011152 0.00751048 2.99696
-0.119667 0.00546222 -0.00605474 3.04578
-0.120048 0.00206108 -0.000414118 3.074
-0.12038 -0.00175301 -0.0016198 3.14271
-0.120554 -0.000655735 0.000796323 3.22135
-0.120781 -0.00749416 0.0048098 3.29441
-0.121019 -0.0032286 0.00485783 3.34695
-0.121192 0.00162155 0.00441882 3.37037
-0.121453 0.00522167 0.0020467 3.37904
-0.121645 0.00232091 -0.00444014 3.37683
-0.121735 -0.000390105 -0.00404804 3.37978
-0.121864 0.00712907 0.00121115 3.44416
-0.121964 -0.00951965 -0.00648327 3.49716
-0.122079 0.0118482 -0.00172246 3.59822
-0.122507 -0.0027291 -0.00199441 3.69313
-0.122647 -2.61599e-05 0.00364172 3.78564
-0.122781 0.00397988 -0.00137058 3.87429
-0.122899 0.00922344 -0.0093259 3.96271
-0.123275 0.000437846 0.000701544 4.05276
-0.123553 -0.00457434 -0.00382765 4.11091
-0.123928 0.0040889 0.00228827 4.13877
-0.124353 0.00020519 -0.00347891 4.18483
-0.124758 0.00510329 0.00245511 4.21992
-0.125269 -0.0026576 0.00160798 4.2254
-0.125611 0.0134659 0.00132994 4.20779
-0.126091 0.000339889 -0.00468954 4.1661
-0.126492 0.00354904 -0.00096633 4.15277
-0.126714 0.00494125 -0.00392229 4.12619
-0.127079 -0.00023206 0.00147952 4.12495
-0.12737 0.00561886 0.0101558 4.12489
-0.127718 -0.00306619 -0.00259532 4.10688
-0.12803 0.00310364 0.00287528 4.07014
-0.128569 -0.00323322 -0.000442189 4.07122
-0.129011 -0.00500834 0.00324108 4.12698
-0.12935 0.00408878 0.00771787 4.20875
-0.129605 -0.00867302 -0.0091776 4.28077
-0.130015 0.0106417 0.00603379 4.37047
-0.130672 -0.00717483 0.00271052 4.4125
-0.131093 -0.00113329 0.00264865 4.45981
-0.131789 -0.00893592 -0.00431452 4.49149
-0.132383 0.00171282 0.00933918 4.51226
-0.132925 0.00435182 0.00655528 4.53735
-0.133549 -0.00199558 -0.00470522 4.55262
-0.134223 0.00424048 0.00630278 4.57072
-0.134951 -0.00463168 -0.00207989 4.57838
-0.135614 0.00812629 0.00522763 4.62156
-0.1363 -0.00370549 -0.00515881 4.63034
-0.136936 -0.00219449 0.00508781 4.61261
-0.137236 -2.46453e-05 0.00254712 4.61066
-0.137706 0.00370521 -0.00606533 4.60558
-0.138239 0.000366202 -0.00346862 4.59949
-0.138494 -0.00205543 -0.00103321 4.57645
-0.13861 0.00997117 0.00406112 4.5287
-0.138776 -0.00835589 0.00170486 4.4942
-0.138485 -0.000881556 0.000492172 4.46327
-0.138406 0.000321653 -0.00509993 4.42262
-0.138257 2.17927e-05 -0.00184325 4.34588
-0.138059 0.00520216 0.00311088 4.25129
-0.137748 -0.00426826 0.0029976 4.13033
-0.137257 -0.00121452 0.00958806 3.99433
-0.136923 -0.00649469 -0.00515658 3.84819
-0.13672 0.00163505 0.00847978 3.6951
-0.136515 -0.0040233 0.00666299 3.50681
-0.136307 0.00875192 0.000896172 3.34226
-0.136565 0.00150208 0.000336899 3.26166
-0.136815 0.00117167 -0.00523441 3.18774
-0.137011 0.00169278 -0.00340176 3.09583